File: example/MoS2 Ext - Chem Mater.csv
01-04,,04-1k,,1-5k,,5-10k,,10-22k,,22-74k,
Wavelength (nm),Ext,Wavelength (nm),Ext,Wavelength (nm),Ext,Wavelength (nm),Ext,Wavelength (nm),Ext,Wavelength (nm),Ext
1000,0.0389,1000,0.00483,1000,0.00148,1000,0.0011,1000,0.0023,1000,0.00459
993.5,0.04027,993.5,0.00526,993.5,0.00164,993.5,0.00122,993.5,0.00245,993.5,0.00466
987,0.04179,987,0.00567,987,0.00182,987,0.00142,987,0.00261,987,0.00477
980.5,0.04312,980.5,0.00589,980.5,0.00191,980.5,0.00181,980.5,0.00299,980.5,0.0049
974,0.0446,974,0.00624,974,0.00218,974,0.00204,974,0.00324,974,0.00499
967.5,0.04592,967.5,0.00638,967.5,0.00226,967.5,0.00201,967.5,0.00335,967.5,0.00497
961,0.04727,961,0.00661,961,0.00227,961,0.00204,961,0.0033,961,0.00501
954.5,0.04864,954.5,0.00667,954.5,0.00218,954.5,0.00169,954.5,0.00289,954.5,0.00495
948,0.05013,948,0.00677,948,0.00219,948,0.00163,948,0.00283,948,0.00497
941.5,0.05158,941.5,0.00685,941.5,0.00199,941.5,0.00162,941.5,0.0028,941.5,0.00502
935,0.05321,935,0.00697,935,0.002,935,0.00165,935,0.0028,935,0.00507
928.5,0.05498,928.5,0.0072,928.5,0.00206,928.5,0.00181,928.5,0.00302,928.5,0.00519
922,0.05668,922,0.00739,922,0.00211,922,0.00188,922,0.00314,922,0.00526
915.5,0.05849,915.5,0.00752,915.5,0.00202,915.5,0.00182,915.5,0.00307,915.5,0.00526
909,0.06042,909,0.00776,909,0.0021,909,0.00173,909,0.00301,909,0.00535
902.5,0.06248,902.5,0.0081,902.5,0.00213,902.5,0.00165,902.5,0.003,902.5,0.00536
896,0.0646,896,0.00835,896,0.00212,896,0.00159,896,0.00292,896,0.00541
889.5,0.06692,889.5,0.00872,889.5,0.00226,889.5,0.00169,889.5,0.00298,889.5,0.00539
883,0.06924,883,0.00915,883,0.00248,883,0.00191,883,0.00317,883,0.00535
876.5,0.07181,876.5,0.00958,876.5,0.0027,876.5,0.00215,876.5,0.0034,876.5,0.00546
870,0.07417,870,0.00994,870,0.00274,870,0.00214,870,0.00351,870,0.00554
863.5,0.0768,863.5,0.01033,863.5,0.00281,863.5,0.00227,863.5,0.00366,863.5,0.00565
857,0.07954,857,0.01064,857,0.00287,857,0.0023,857,0.00373,857,0.00572
850.5,0.08249,850.5,0.01107,850.5,0.00295,850.5,0.0022,850.5,0.00369,850.5,0.00578
844,0.08545,844,0.01154,844,0.00297,844,0.00212,844,0.00359,844,0.00599
837.5,0.08862,837.5,0.0121,837.5,0.00312,837.5,0.00222,837.5,0.0036,837.5,0.00604
831,0.09186,831,0.01266,831,0.00339,831,0.00231,831,0.00375,831,0.00614
824.5,0.09533,824.5,0.01324,824.5,0.00361,824.5,0.00244,824.5,0.00393,824.5,0.00615
818,0.09886,818,0.01381,818,0.00378,818,0.00258,818,0.00412,818,0.00632
811.5,0.10256,811.5,0.01444,811.5,0.00397,811.5,0.00281,811.5,0.00427,811.5,0.00634
805,0.10648,805,0.01506,805,0.00395,805,0.00288,805,0.00437,805,0.00644
798.5,0.11029,798.5,0.01546,798.5,0.00348,798.5,0.00246,798.5,0.00402,798.5,0.00578
792,0.11478,792,0.01654,792,0.00397,792,0.00299,792,0.00441,792,0.00577
785.5,0.11926,785.5,0.01737,785.5,0.00405,785.5,0.00283,785.5,0.00438,785.5,0.00588
779,0.12404,779,0.01816,779,0.00428,779,0.00297,779,0.00449,779,0.006
772.5,0.12901,772.5,0.01921,772.5,0.00464,772.5,0.00304,772.5,0.00471,772.5,0.00621
766,0.13436,766,0.02042,766,0.00499,766,0.0033,766,0.00493,766,0.00629
759.5,0.13977,759.5,0.02159,759.5,0.00525,759.5,0.00339,759.5,0.00506,759.5,0.00654
753,0.14557,753,0.02291,753,0.00556,753,0.0037,753,0.00521,753,0.00667
746.5,0.15175,746.5,0.02436,746.5,0.00569,746.5,0.00382,746.5,0.0053,746.5,0.00679
740,0.15833,740,0.02606,740,0.00607,740,0.00407,740,0.00551,740,0.00694
733.5,0.16556,733.5,0.0278,733.5,0.00642,733.5,0.00421,733.5,0.00568,733.5,0.00726
727,0.17346,727,0.02981,727,0.0068,727,0.0043,727,0.00583,727,0.00754
720.5,0.18209,720.5,0.03247,720.5,0.00747,720.5,0.00459,720.5,0.00635,720.5,0.00777
714,0.19174,714,0.0357,714,0.00839,714,0.00514,714,0.00692,714,0.00819
707.5,0.2027,707.5,0.03986,707.5,0.00955,707.5,0.00584,707.5,0.00759,707.5,0.00884
701,0.21561,701,0.0457,701,0.01135,701,0.007,701,0.00861,701,0.00967
694.5,0.23052,694.5,0.0539,694.5,0.01403,694.5,0.00866,694.5,0.01002,694.5,0.01065
688,0.24786,688,0.06623,688,0.01855,688,0.01128,688,0.01223,688,0.0122
681.5,0.26408,681.5,0.08432,681.5,0.02592,681.5,0.01532,681.5,0.01545,681.5,0.0143
675,0.26974,675,0.10281,675,0.03569,675,0.02083,675,0.02006,675,0.01741
668.5,0.26053,668.5,0.1103,668.5,0.04337,668.5,0.02701,668.5,0.02582,668.5,0.02141
662,0.24839,662,0.10742,662,0.04582,662,0.03158,662,0.03129,662,0.0257
655.5,0.24199,655.5,0.10218,655.5,0.04424,655.5,0.03235,655.5,0.03411,655.5,0.02902
649,0.24293,649,0.10032,649,0.04298,649,0.03197,649,0.03489,649,0.031
642.5,0.24921,642.5,0.10281,642.5,0.04357,642.5,0.03223,642.5,0.03518,642.5,0.03118
636,0.25761,636,0.10855,636,0.046,636,0.0338,636,0.03643,636,0.03191
629.5,0.26641,629.5,0.11683,629.5,0.04996,629.5,0.03682,629.5,0.03915,629.5,0.03411
623,0.27394,623,0.1266,623,0.0553,623,0.04097,623,0.04341,623,0.03748
616.5,0.27793,616.5,0.13606,616.5,0.0612,616.5,0.04568,616.5,0.04849,616.5,0.0419
610,0.27562,610,0.14137,610,0.06578,610,0.04956,610,0.05288,610,0.04591
603.5,0.26816,603.5,0.13983,603.5,0.06668,603.5,0.05068,603.5,0.05458,603.5,0.04825
597,0.26127,597,0.13484,597,0.06456,597,0.04942,597,0.05374,597,0.0481
590.5,0.25974,590.5,0.13122,590.5,0.0621,590.5,0.04764,590.5,0.05182,590.5,0.04681
584,0.26268,584,0.13064,584,0.06067,584,0.04613,584,0.05017,584,0.04553
577.5,0.26765,577.5,0.13253,577.5,0.06041,577.5,0.0455,577.5,0.04938,577.5,0.04502
571,0.27341,571,0.13607,571,0.0609,571,0.04529,571,0.04908,571,0.04485
564.5,0.27942,564.5,0.14029,564.5,0.06178,564.5,0.04522,564.5,0.04914,564.5,0.04491
558,0.28617,558,0.14594,558,0.06353,558,0.04588,558,0.04969,558,0.04548
551.5,0.29324,551.5,0.15266,551.5,0.06586,551.5,0.04704,551.5,0.05077,551.5,0.04641
545,0.30068,545,0.16019,545,0.06884,545,0.04859,545,0.05228,545,0.04756
538.5,0.30855,538.5,0.16891,538.5,0.07237,538.5,0.05035,538.5,0.05411,538.5,0.04897
532,0.31697,532,0.1788,532,0.0766,532,0.05255,532,0.05639,532,0.05078
525.5,0.3259,525.5,0.18998,525.5,0.0818,525.5,0.05521,525.5,0.05907,525.5,0.05299
519,0.33506,519,0.20278,519,0.08811,519,0.05862,519,0.06225,519,0.05573
512.5,0.34466,512.5,0.21751,512.5,0.0961,512.5,0.06295,512.5,0.06623,512.5,0.05892
506,0.35421,506,0.23399,506,0.1059,506,0.06847,506,0.07127,506,0.063
499.5,0.36316,499.5,0.25224,499.5,0.11793,499.5,0.07555,499.5,0.07749,499.5,0.06794
493,0.37097,493,0.27114,493,0.13247,493,0.08451,493,0.0854,493,0.07388
486.5,0.37651,486.5,0.2892,486.5,0.14878,486.5,0.09551,486.5,0.09538,486.5,0.08129
480,0.37997,480,0.30488,480,0.16571,480,0.10833,480,0.10738,480,0.09019
473.5,0.38216,473.5,0.31861,473.5,0.18313,473.5,0.12317,473.5,0.12147,473.5,0.10077
467,0.38304,467,0.33052,467,0.20069,467,0.13982,467,0.13786,467,0.11339
460.5,0.38186,460.5,0.33942,460.5,0.2176,460.5,0.15805,460.5,0.15629,460.5,0.1281
454,0.37806,454,0.34408,454,0.2321,454,0.17693,454,0.17656,454,0.14476
447.5,0.37206,447.5,0.34392,447.5,0.2422,447.5,0.19477,447.5,0.19723,447.5,0.16281
441,0.36489,441,0.34036,441,0.24756,441,0.20879,441,0.21608,441,0.18095
434.5,0.35905,434.5,0.33642,434.5,0.2501,434.5,0.21899,434.5,0.23178,434.5,0.19805
428,0.35496,428,0.33389,428,0.25188,428,0.22612,428,0.2437,428,0.212
421.5,0.35216,421.5,0.33266,421.5,0.2543,421.5,0.23193,421.5,0.25245,421.5,0.22249
415,0.34998,415,0.33242,415,0.25762,415,0.23761,415,0.2595,415,0.23
408.5,0.34709,408.5,0.33183,408.5,0.26105,408.5,0.24374,408.5,0.26636,408.5,0.23607
402,0.34285,402,0.32943,402,0.26331,402,0.2497,402,0.27257,402,0.24141
395.5,0.33683,395.5,0.32414,395.5,0.26292,395.5,0.25342,395.5,0.277,395.5,0.24503
389,0.32804,389,0.31512,389,0.25831,389,0.25278,389,0.27686,389,0.24492
382.5,0.31728,382.5,0.30243,382.5,0.24908,382.5,0.24627,382.5,0.27058,382.5,0.23927
376,0.30537,376,0.28778,376,0.23624,376,0.23461,376,0.25788,376,0.22835
369.5,0.2942,369.5,0.27349,369.5,0.22282,369.5,0.22051,369.5,0.24217,369.5,0.21413
363,0.28413,363,0.26032,363,0.20993,363,0.20631,363,0.22599,363,0.19954
356.5,0.27716,356.5,0.25029,356.5,0.19943,356.5,0.19374,356.5,0.21162,356.5,0.18668
350,0.27388,350,0.24508,350,0.19293,350,0.18526,350,0.20154,350,0.17779
343.5,0.27623,343.5,0.24721,343.5,0.19329,343.5,0.18326,343.5,0.19835,343.5,0.17459
337,0.28001,337,0.25287,337,0.19932,337,0.18865,337,0.20245,337,0.17618
330.5,0.28281,330.5,0.2568,330.5,0.20426,330.5,0.19521,330.5,0.20947,330.5,0.18192
324,0.28421,324,0.26025,324,0.20889,324,0.20188,324,0.21776,324,0.1895
317.5,0.28601,317.5,0.26427,317.5,0.21462,317.5,0.21109,317.5,0.23018,317.5,0.20175
311,0.28809,311,0.26803,311,0.22098,311,0.22182,311,0.2463,311,0.21994
304.5,0.29093,304.5,0.27265,304.5,0.22764,304.5,0.23282,304.5,0.26242,304.5,0.2388
298,0.29396,298,0.27773,298,0.23417,298,0.24254,298,0.27522,298,0.25346
291.5,0.29715,291.5,0.28258,291.5,0.24063,291.5,0.25114,291.5,0.28517,291.5,0.26319
285,0.30095,285,0.28726,285,0.24755,285,0.25999,285,0.29405,285,0.26967
278.5,0.30334,278.5,0.29083,278.5,0.25366,278.5,0.26926,278.5,0.30358,278.5,0.27675
272,0.30284,272,0.29113,272,0.25657,272,0.27683,272,0.31266,272,0.28429
265.5,0.29903,265.5,0.28723,265.5,0.25544,265.5,0.28033,265.5,0.31899,265.5,0.29098
259,0.29417,259,0.28087,259,0.25158,259,0.28043,259,0.32179,259,0.2955
252.5,0.28759,252.5,0.27198,252.5,0.24393,252.5,0.27585,252.5,0.31962,252.5,0.29627
246,0.28039,246,0.26261,246,0.23456,246,0.26775,246,0.3128,246,0.29284
239.5,0.27605,239.5,0.25621,239.5,0.22795,239.5,0.26095,239.5,0.30735,239.5,0.2899
233,0.27357,233,0.25208,233,0.22384,233,0.25718,233,0.3048,233,0.28878
226.5,0.27081,226.5,0.24839,226.5,0.22041,226.5,0.25531,226.5,0.3048,226.5,0.28938
220,0.26803,220,0.24436,220,0.21681,220,0.25366,220,0.30684,220,0.29278
213.5,0.26721,213.5,0.24227,213.5,0.21465,213.5,0.25324,213.5,0.31048,213.5,0.29842
207,0.26547,207,0.23771,207,0.20938,207,0.24971,207,0.30976,207,0.30024
200.5,0.25873,200.5,0.22712,200.5,0.19736,200.5,0.2394,200.5,0.30281,200.5,0.29752
200,0.25808,200,0.22657,200,0.19684,200,0.23856,200,0.30274,200,0.29737