File: example/MoS2 Ext - JOVE HER.csv
1-1.5k,,2-3k,,3-5k,,5-15k,,0.5-0.75k,,0.75-1k,,1k-2k,,15kS,
Wavelength (nm),Ext,Wavelength (nm),Ext,Wavelength (nm),Ext,Wavelength (nm),Ext,Wavelength (nm),Ext,Wavelength (nm),Ext,Wavelength (nm),Ext,Wavelength (nm),Ext
1100,0.03932,1100,0.00791,1100,0.00708,1100,0.0104,1100,0.2911,1100,0.12161,1100,0.01364,1100,0.00696
1091,0.04104,1091,0.00812,1091,0.00715,1091,0.01058,1091,0.30018,1091,0.12596,1091,0.01402,1091,0.00751
1082,0.04229,1082,0.00822,1082,0.00718,1082,0.01068,1082,0.30942,1082,0.13033,1082,0.01425,1082,0.00759
1073,0.04408,1073,0.0084,1073,0.0075,1073,0.01097,1073,0.31931,1073,0.13538,1073,0.01497,1073,0.00851
1064,0.04567,1064,0.00872,1064,0.00756,1064,0.01113,1064,0.32938,1064,0.14042,1064,0.01529,1064,0.00849
1055,0.04768,1055,0.00895,1055,0.00766,1055,0.0113,1055,0.33976,1055,0.14573,1055,0.01589,1055,0.0088
1046,0.04939,1046,0.00914,1046,0.00788,1046,0.01155,1046,0.35069,1046,0.15146,1046,0.01644,1046,0.00935
1037,0.05128,1037,0.00948,1037,0.00811,1037,0.01176,1037,0.3619,1037,0.15726,1037,0.01698,1037,0.00954
1028,0.05317,1028,0.00966,1028,0.00814,1028,0.01189,1028,0.37341,1028,0.16328,1028,0.01748,1028,0.00978
1019,0.05536,1019,0.00954,1019,0.00841,1019,0.01217,1019,0.38561,1019,0.17004,1019,0.01814,1019,0.01045
1010,0.05758,1010,0.01053,1010,0.00867,1010,0.01238,1010,0.39819,1010,0.17697,1010,0.01885,1010,0.01067
1001,0.06067,1001,0.01078,1001,0.00898,1001,0.01269,1001,0.41133,1001,0.18445,1001,0.01995,1001,0.01127
992,0.06355,992,0.01112,992,0.00938,992,0.01298,992,0.42512,992,0.19238,992,0.02058,992,0.01176
983,0.06673,983,0.01173,983,0.00979,983,0.01333,983,0.43939,983,0.20089,983,0.02171,983,0.01232
974,0.06992,974,0.0122,974,0.01018,974,0.01366,974,0.45413,974,0.20977,974,0.02286,974,0.013
965,0.07329,965,0.01269,965,0.01049,965,0.01396,965,0.46937,965,0.21905,965,0.02383,965,0.0134
956,0.07654,956,0.01303,956,0.01064,956,0.01424,956,0.48489,956,0.22856,956,0.02493,956,0.01379
947,0.07943,947,0.01341,947,0.01072,947,0.01441,947,0.5007,947,0.23833,947,0.02559,947,0.01401
938,0.08303,938,0.01371,938,0.01084,938,0.0147,938,0.51723,938,0.24892,938,0.02646,938,0.01456
929,0.08702,929,0.01422,929,0.01139,929,0.01506,929,0.53453,929,0.26037,929,0.02759,929,0.01508
920,0.09101,920,0.01486,920,0.01149,920,0.01537,920,0.55212,920,0.27217,920,0.02871,920,0.01555
911,0.09567,911,0.0153,911,0.01173,911,0.01575,911,0.57047,911,0.28479,911,0.02996,911,0.01616
902,0.10051,902,0.01589,902,0.01214,902,0.01619,902,0.58962,902,0.29838,902,0.03133,902,0.01676
893,0.10573,893,0.01684,893,0.01253,893,0.01663,893,0.6093,893,0.31279,893,0.03306,893,0.01754
884,0.11139,884,0.01735,884,0.01302,884,0.0171,884,0.62963,884,0.32811,884,0.03466,884,0.01834
875,0.11728,875,0.01803,875,0.01342,875,0.01759,875,0.65029,875,0.34425,875,0.03632,875,0.01905
866,0.12388,866,0.01891,866,0.01389,866,0.01811,866,0.67187,866,0.36154,866,0.03824,866,0.01993
857,0.13095,857,0.0198,857,0.01456,857,0.01869,857,0.69399,857,0.37991,857,0.04032,857,0.02082
848,0.13867,848,0.02073,848,0.01501,848,0.01928,848,0.71665,848,0.39942,848,0.04256,848,0.02193
839,0.14653,839,0.02161,839,0.01555,839,0.01973,839,0.7397,839,0.41974,839,0.04465,839,0.02242
830,0.1553,830,0.02264,830,0.01593,830,0.02027,830,0.76349,830,0.44153,830,0.04712,830,0.02319
821,0.16481,821,0.02368,821,0.01649,821,0.02079,821,0.78783,821,0.46479,821,0.04955,821,0.02393
812,0.17529,812,0.02491,812,0.01709,812,0.02138,812,0.81298,812,0.4899,812,0.05276,812,0.02478
803,0.18689,803,0.02615,803,0.01756,803,0.02187,803,0.83861,803,0.51646,803,0.05584,803,0.02497
794,0.19859,794,0.0274,794,0.01809,794,0.02226,794,0.86042,794,0.54324,794,0.05908,794,0.0256
785,0.21277,785,0.02899,785,0.01888,785,0.02295,785,0.88742,785,0.57345,785,0.06315,785,0.02604
776,0.2286,776,0.03086,776,0.0198,776,0.02365,776,0.91434,776,0.60669,776,0.0681,776,0.02726
767,0.24584,767,0.03273,767,0.02073,767,0.02438,767,0.94187,767,0.64169,767,0.07225,767,0.02779
758,0.26565,758,0.03498,758,0.02184,758,0.0252,758,0.96993,758,0.67935,758,0.07869,758,0.02844
749,0.28721,749,0.0376,749,0.02311,749,0.02626,749,0.99813,749,0.72076,749,0.08505,749,0.02873
740,0.31326,740,0.04076,740,0.0249,740,0.02775,740,1.0272,740,0.76545,740,0.09284,740,0.03018
731,0.34274,731,0.0445,731,0.0266,731,0.02937,731,1.05642,731,0.81425,731,0.10208,731,0.03095
722,0.37856,722,0.04964,722,0.02995,722,0.03192,722,1.08654,722,0.86936,722,0.11382,722,0.0331
713,0.4245,713,0.0566,713,0.03402,713,0.0356,713,1.11688,713,0.93142,713,0.12964,713,0.03565
704,0.48447,704,0.06798,704,0.04143,704,0.04183,704,1.14736,704,1.00342,704,0.15275,704,0.04013
695,0.56907,695,0.08746,695,0.05455,695,0.0525,695,1.17423,695,1.08492,695,0.19069,695,0.04702
686,0.69026,686,0.12631,686,0.08078,686,0.07268,686,1.18767,686,1.16407,686,0.26,686,0.05719
677,0.81787,677,0.20324,677,0.13387,677,0.11071,677,1.16525,677,1.18243,677,0.37948,677,0.07632
668,0.81635,668,0.27457,668,0.19534,668,0.16308,668,1.10586,668,1.10336,668,0.45125,668,0.10654
659,0.75162,659,0.2749,659,0.21051,659,0.19383,659,1.07159,659,1.0408,659,0.4257,659,0.14016
650,0.73027,650,0.25455,650,0.19563,650,0.18774,650,1.07693,650,1.03885,650,0.39963,650,0.15347
641,0.76058,641,0.25531,641,0.19452,641,0.18609,641,1.09958,641,1.07579,641,0.40791,641,0.15667
632,0.81793,632,0.27754,632,0.21054,632,0.20042,632,1.11698,632,1.11623,632,0.44586,632,0.16788
623,0.88094,623,0.31825,623,0.24203,623,0.22947,623,1.12221,623,1.14085,623,0.50479,623,0.1918
614,0.91849,614,0.36798,614,0.28287,614,0.26725,614,1.11022,614,1.13454,614,0.56418,614,0.2239
605,0.89918,605,0.39227,605,0.30645,605,0.29019,605,1.08229,605,1.09533,605,0.58088,605,0.24709
596,0.85844,596,0.37486,596,0.29528,596,0.28072,596,1.06404,596,1.06348,596,0.55076,596,0.24689
587,0.85166,587,0.35553,587,0.27812,587,0.26442,587,1.07308,587,1.07199,587,0.53184,587,0.23828
578,0.87844,578,0.35166,578,0.27001,578,0.25589,578,1.08936,578,1.09817,578,0.53992,578,0.23183
569,0.91683,569,0.35955,569,0.27118,569,0.25453,569,1.10375,569,1.12451,569,0.56251,569,0.23105
560,0.95985,560,0.37547,560,0.27802,560,0.25816,560,1.1177,560,1.15063,560,0.59538,560,0.23348
551,1.00783,551,0.39723,551,0.28935,551,0.26574,551,1.13121,551,1.17514,551,0.6361,551,0.23838
542,1.06199,542,0.42627,542,0.30639,542,0.27791,542,1.14567,542,1.20001,542,0.68702,542,0.24762
533,1.11956,533,0.46377,533,0.32884,533,0.29449,533,1.16024,533,1.22341,533,0.74837,533,0.25977
524,1.18059,524,0.51234,524,0.35873,524,0.31684,524,1.1759,524,1.246,524,0.82326,524,0.27598
515,1.24326,515,0.5759,515,0.39995,515,0.34714,515,1.19247,515,1.2668,515,0.9132,515,0.29717
506,1.30284,506,0.6594,506,0.4564,506,0.38864,506,1.20926,506,1.28566,506,1.0185,506,0.3243
497,1.35346,497,0.7664,497,0.53366,497,0.44619,497,1.22403,497,1.30147,497,1.13327,497,0.36086
488,1.38582,488,0.89157,488,0.63601,488,0.52469,488,1.2331,488,1.311,488,1.23911,488,0.40923
479,1.40034,479,1.01491,479,0.75521,479,0.6245,479,1.235,479,1.31371,479,1.31767,479,0.4735
470,1.40633,470,1.12911,470,0.88393,470,0.74441,470,1.23347,470,1.31317,470,1.37431,470,0.55761
461,1.40098,461,1.22805,461,1.01475,461,0.88009,461,1.22545,461,1.30556,461,1.40798,461,0.66348
452,1.37873,452,1.29203,452,1.12947,452,1.0188,452,1.20924,452,1.28638,452,1.40953,452,0.79127
443,1.34363,443,1.31017,443,1.19877,443,1.13156,443,1.18815,443,1.25885,443,1.38208,443,0.93469
434,1.31123,434,1.30334,434,1.22726,434,1.19914,434,1.1706,434,1.23477,434,1.35053,434,1.07053
425,1.29256,425,1.30408,425,1.24725,425,1.24033,425,1.16039,425,1.22036,425,1.33435,425,1.1796
416,1.28114,416,1.31645,416,1.27752,416,1.27623,416,1.15317,416,1.21108,416,1.32871,416,1.25555
407,1.26682,407,1.33095,407,1.31392,407,1.31943,407,1.14361,407,1.19894,407,1.32151,407,1.31566
398,1.2427,398,1.33092,398,1.33903,398,1.35716,398,1.12891,398,1.17935,398,1.30048,398,1.36677
389,1.20169,389,1.29893,389,1.32907,389,1.36107,389,1.10579,389,1.14813,389,1.25574,389,1.38968
380,1.1449,380,1.23016,380,1.26853,380,1.3079,380,1.07454,380,1.10538,380,1.18748,380,1.35242
371,1.08515,371,1.14651,371,1.18001,371,1.21386,371,1.04233,371,1.06108,371,1.11325,371,1.25699
362,1.03224,362,1.06698,362,1.08875,362,1.11303,362,1.01411,362,1.02155,362,1.0466,362,1.14159
353,1.00004,353,1.0107,353,1.01953,353,1.02924,353,0.99742,353,0.9985,353,1.00349,353,1.04456
344,1.00217,344,1.00223,344,1.00168,344,0.99988,344,1.00202,344,1.00214,344,1.00248,344,0.99722
335,1.0205,335,1.03487,335,1.03883,335,1.03744,335,1.01202,335,1.01545,335,1.02795,335,1.01629
326,1.03209,326,1.06235,326,1.077,326,1.08874,326,1.01886,326,1.02388,326,1.04587,326,1.07143
317,1.0386,317,1.08841,317,1.11726,317,1.14923,317,1.02207,317,1.02956,317,1.06016,317,1.16883
308,1.04974,308,1.11749,308,1.16367,308,1.22168,308,1.0301,308,1.03778,308,1.07585,308,1.3256
299,1.0638,299,1.1515,299,1.21349,299,1.28829,299,1.04112,299,1.05147,299,1.0972,299,1.46998
290,1.07915,290,1.18647,290,1.26403,290,1.34701,290,1.05183,290,1.06588,290,1.11722,290,1.56551
281,1.09591,281,1.22392,281,1.32172,281,1.4149,281,1.06216,281,1.0803,281,1.13938,281,1.63977
272,1.09701,272,1.24136,272,1.36201,272,1.47566,272,1.05978,272,1.08145,272,1.14277,272,1.72513
263,1.07763,263,1.22385,263,1.36123,263,1.49854,263,1.04737,263,1.06739,263,1.12046,263,1.81925
254,1.04979,254,1.18303,254,1.32707,254,1.48252,254,1.03132,254,1.0475,254,1.08298,254,1.92893
245,1.01587,245,1.12715,245,1.2666,245,1.42838,245,1.01303,245,1.0245,245,1.03726,245,2.11311
236,0.99785,236,1.09317,236,1.22829,236,1.38781,236,1.0037,236,1.01355,236,1.01058,236,2.42286
227,0.98435,227,1.07289,227,1.20572,227,1.37249,227,0.99449,227,1.00463,227,0.99302,227,2.62273
218,0.97007,218,1.05223,218,1.18173,218,1.36235,218,0.98624,218,0.99526,218,0.97495,218,2.9757
209,0.97405,209,1.04959,209,1.16946,209,1.36845,209,0.98835,209,1.00277,209,0.97283,209,3.82029
200,0.96121,200,0.99994,200,1.04616,200,1.30031,200,0.98119,200,0.99687,200,0.94305,200,3.85978