File: example/MoS2 Ext - JOVE.csv
MoS2 F1,,MoS2 F2,,MoS2 F3,,MoS2 F4,,MoS2 F5,,MoS2 F6,,MoS2 F7,
Wavelength (nm),Ext,Wavelength (nm),Ext,Wavelength (nm),Ext,Wavelength (nm),Ext,Wavelength (nm),Ext,Wavelength (nm),Ext,Wavelength (nm),Ext
800,1.65176,800,2.8116,800,3.31032,800,4.68158,800,8.00866,800,10.27176,800,10.62323
795,1.78138,795,2.67834,795,3.55471,795,4.66994,795,8.15659,795,10.41688,795,10.88566
790,1.79564,790,2.97695,790,3.55798,790,4.90366,790,8.39358,790,10.85329,790,11.15713
785,1.60654,785,2.75476,785,3.62898,785,4.85128,785,8.67336,785,11.2664,785,11.62357
780,1.45316,780,2.62552,780,3.41737,780,4.70308,780,8.75294,780,11.59542,780,12.21269
775,1.67279,775,2.9735,775,3.99239,775,5.28454,775,9.27919,775,12.21381,775,12.77116
770,1.5953,770,2.94731,770,3.80766,770,5.26992,770,9.61286,770,12.6063,770,13.28326
765,1.74062,765,2.95235,765,4.00498,765,5.65184,765,10.05242,765,13.10084,765,13.79165
760,1.87802,760,2.97177,760,4.1445,760,5.89049,760,10.46441,760,13.70769,760,14.42962
755,1.62958,755,3.06848,755,4.20665,755,5.88496,755,10.76415,755,14.22585,755,15.16156
750,1.72348,750,3.08071,750,4.39946,750,6.24868,750,11.33431,750,15.04791,750,15.92292
745,1.95953,745,3.20218,745,4.52873,745,6.59657,745,12.0181,745,15.66053,745,16.81025
740,1.94657,740,3.26291,740,4.86806,740,6.97372,740,12.54098,740,16.51486,740,17.73871
735,2.07215,735,3.33055,735,4.93953,735,7.25087,735,13.22689,735,17.44827,735,18.71971
730,1.91661,730,3.21139,730,5.1774,730,7.59698,730,13.92515,730,18.35988,730,19.84201
725,2.04191,725,3.45575,725,5.42475,725,8.02114,725,14.73667,725,19.57817,725,21.19022
720,2.27969,720,3.67291,720,5.86678,720,8.60634,720,15.77433,720,20.87137,720,22.63962
715,2.25765,715,3.69421,715,6.20595,715,9.16318,715,16.81897,715,22.20892,715,24.20779
710,2.56917,710,4.08435,710,6.7485,710,10.00717,710,18.22472,710,24.07595,710,26.20157
705,2.7093,705,4.36426,705,7.33254,705,11.01742,705,19.83279,705,26.14387,705,28.4294
700,3.13703,700,4.74505,700,8.06262,700,12.11723,700,21.78525,700,28.54145,700,31.0594
695,3.51321,695,5.30544,695,9.24079,695,13.73895,695,24.41102,695,31.61866,695,34.44232
690,4.30201,690,6.21425,690,10.91009,690,16.1869,690,27.94273,690,35.597,690,38.70578
685,5.20026,685,7.50801,685,13.44946,685,19.68167,685,32.61251,685,40.44025,685,43.53369
680,6.66119,680,9.42606,680,17.04954,680,24.33266,680,38.32432,680,45.04542,680,47.72784
675,8.49888,675,11.83227,675,21.28104,675,29.2899,675,42.61841,675,47.18387,675,48.92469
670,10.55649,670,14.2435,670,24.38021,670,32.13038,670,43.39949,670,46.09712,670,47.04556
665,12.17254,665,15.66362,665,25.17042,665,32.12843,665,41.64286,665,43.55966,665,44.32137
660,12.93008,660,15.84812,660,24.43941,660,30.65357,660,39.4332,660,41.41041,660,42.11822
655,12.76201,655,15.23836,655,23.18153,655,29.16961,655,37.95835,655,40.20548,655,41.07932
650,12.54022,650,14.79325,650,22.51686,650,28.51874,650,37.52977,650,40.12309,650,41.1256
645,12.33729,645,14.57119,645,22.42566,645,28.6065,645,38.03993,645,40.94814,645,42.06321
640,12.48592,640,14.83009,640,22.89301,640,29.40453,640,39.44505,640,42.38913,640,43.52135
635,12.93627,635,15.38386,635,23.90664,635,30.85521,635,41.29997,635,44.25103,635,45.38258
630,13.80111,630,16.33857,630,25.44092,630,32.85527,630,43.68949,630,46.25431,630,47.24382
625,14.94995,625,17.56153,625,27.4191,625,35.20531,625,46.11432,625,48.09003,625,48.87852
620,16.22913,620,18.9792,620,29.51053,620,37.6761,620,48.35566,620,49.46711,620,49.89675
615,17.65291,615,20.55863,615,31.72005,615,39.96018,615,49.87791,615,50.00354,615,50.09912
610,18.86354,610,21.77454,610,33.24952,610,41.25445,610,50.14147,610,49.58049,610,49.35894
605,19.39008,605,22.2552,605,33.53151,605,41.22221,605,49.19212,605,48.2781,605,47.99037
600,19.20184,600,21.96378,600,32.80857,600,40.06719,600,47.65166,600,46.84619,600,46.57542
595,18.48563,595,21.19889,595,31.63506,595,38.70262,595,46.34083,595,45.8803,595,45.70989
590,17.86765,590,20.4825,590,30.758,590,37.86744,590,45.90901,590,45.75464,590,45.77067
585,17.35681,585,20.00659,585,30.31846,585,37.657,585,46.25839,585,46.3757,585,46.43475
580,17.09066,580,19.78252,580,30.35171,580,38.03012,580,47.15622,580,47.33838,580,47.37986
575,17.04285,575,19.79201,575,30.72553,575,38.81232,575,48.41179,575,48.49331,575,48.51851
570,17.05898,570,19.94053,570,31.32463,570,39.78138,570,49.86993,570,49.76984,570,49.71782
565,17.11255,565,20.12963,565,32.12852,565,41.07312,565,51.41837,565,51.03323,565,50.86953
560,17.33103,560,20.44883,560,33.08715,560,42.39783,560,53.15367,560,52.33882,560,52.03964
555,17.53914,555,20.9269,555,34.26532,555,43.95344,555,54.98451,555,53.68674,555,53.15237
550,17.95996,550,21.52126,550,35.48902,550,45.72798,550,56.98212,550,54.99767,550,54.3558
545,18.37128,545,22.09316,545,36.90693,545,47.73267,545,59.04908,545,56.38256,545,55.47017
540,18.90084,540,22.87719,540,38.66836,540,49.97377,540,61.28918,540,57.77877,540,56.5537
535,19.56016,535,23.78642,535,40.58827,535,52.50903,535,63.60037,535,59.1628,535,57.57635
530,20.33268,530,24.79783,530,42.72989,530,55.22473,530,66.04378,530,60.41208,530,58.52712
525,21.18773,525,26.05375,525,45.26491,525,58.37101,525,68.60119,525,61.61499,525,59.41352
520,22.25175,520,27.44207,520,48.13428,520,61.82534,520,70.99247,520,62.71606,520,60.17128
515,23.53914,515,29.11691,515,51.4084,515,65.56801,515,73.32062,515,63.64808,515,60.78477
510,24.97832,510,31.06087,510,55.07575,510,69.57723,510,75.48675,510,64.42836,510,61.29101
505,26.77238,505,33.4059,505,59.27556,505,73.87958,505,77.40515,505,65.1036,505,61.70418
500,28.98481,500,36.35983,500,63.9898,500,78.43669,500,78.98628,500,65.65445,500,62.03982
495,31.56578,495,39.86696,495,69.09977,495,82.73232,495,80.11836,495,66.09193,495,62.36137
490,34.67588,490,43.74969,490,74.20213,490,86.57305,490,80.7449,490,66.43868,490,62.60652
485,38.26471,485,48.09481,485,79.02481,485,89.705,485,81.09977,485,66.70765,485,62.85331
480,42.30201,480,52.5637,480,83.39009,480,92.19832,480,81.1317,480,66.94145,480,62.98062
475,46.49557,475,57.01388,475,87.07656,475,94.06839,475,81.10762,475,67.06776,475,63.18453
470,51.05005,470,61.51558,470,90.40397,470,95.5528,470,80.95595,470,67.12856,470,63.28921
465,55.91488,465,66.0508,465,93.26728,465,96.61335,465,80.67954,465,67.10089,465,63.28263
460,61.04716,460,70.54444,460,95.50119,460,97.11542,460,80.15067,460,66.96144,460,63.21096
455,66.14762,455,74.49194,455,96.79853,455,97.00498,455,79.47049,455,66.56627,455,62.83419
450,70.77929,450,77.66677,450,97.1708,450,96.10965,450,78.42635,450,65.93624,450,62.22605
445,74.74847,445,79.92489,445,96.71898,445,94.88433,445,77.25073,445,65.11973,445,61.55014
440,77.83711,440,81.18886,440,95.834,440,93.5108,440,76.07998,440,64.33069,440,60.72544
435,80.03341,435,81.88367,435,94.83543,435,92.22967,435,75.04906,435,63.59711,435,60.07987
430,81.6977,430,82.44406,430,94.28915,430,91.34135,430,74.31101,430,63.08472,430,59.63255
425,83.24361,425,83.16606,425,93.98618,425,90.79182,425,73.83477,425,62.69009,425,59.26277
420,84.73824,420,84.08149,420,94.02067,420,90.44646,420,73.41043,420,62.41664,420,58.96518
415,86.36624,415,85.1034,415,94.22343,415,90.32363,415,72.94829,415,62.16616,415,58.74996
410,87.93951,410,86.3219,410,94.2994,410,89.87932,410,72.60752,410,61.88481,410,58.48609
405,89.5845,405,87.19933,405,94.16874,405,89.30054,405,72.02027,405,61.45363,405,58.10747
400,91.03579,400,87.97401,400,93.58424,400,88.44685,400,71.19366,400,60.81975,400,57.50344
395,91.77662,395,88.01747,395,92.58536,395,87.08736,395,70.15313,395,60.03722,395,56.80594
390,91.5701,390,87.14824,390,90.68208,390,85.23117,390,68.69911,390,58.90004,390,55.81003
385,90.19039,385,85.36187,385,88.17534,385,82.88575,385,66.97716,385,57.56131,385,54.50798
380,87.58565,380,82.52796,380,85.19472,380,80.06095,380,65.02845,380,56.00278,380,53.00892
375,83.9506,375,79.22058,375,81.94111,375,77.25719,375,62.98057,375,54.46071,375,51.54523
370,80.35385,370,75.94516,370,78.81817,370,74.46687,370,61.13251,370,52.9337,370,50.12339
365,76.37286,365,72.65649,365,75.80026,365,71.97877,365,59.3911,365,51.51035,365,48.83101
360,72.88154,360,69.77207,360,73.31558,360,69.89513,360,57.92099,360,50.22239,360,47.64743
355,69.80039,355,67.31449,355,71.34689,355,68.38311,355,56.86549,355,49.32542,355,46.85635
350,67.96615,350,65.82947,350,70.47014,350,67.77209,350,56.48605,350,49.06607,350,46.55485
345,67.50083,345,65.668,345,70.83759,345,68.03775,345,56.8963,345,49.41112,345,46.81861
340,68.08281,340,66.72445,340,71.79902,340,68.90353,340,57.43428,340,49.82615,340,47.12279
335,69.90595,335,68.34504,335,72.99335,335,69.94692,335,58.22572,335,50.45021,335,47.76075
330,71.80111,330,69.58239,330,74.0177,330,70.6042,330,58.37178,330,50.69684,330,48.00991
325,73.76352,325,71.00323,325,75.07733,325,71.4279,325,58.9811,325,50.86012,325,48.49043
320,76.09678,320,72.49387,320,75.55524,320,71.75549,320,59.19066,320,51.17492,320,48.60848
315,78.34075,315,74.08121,315,76.80395,315,72.58322,315,59.64307,315,51.72311,315,48.90834
310,81.32325,310,75.53904,310,77.62384,310,72.81276,310,59.77815,310,52.08984,310,49.02042
305,84.05818,305,77.58618,305,78.79145,305,73.73406,305,60.55624,305,52.59977,305,49.70507
300,87.08519,300,79.65692,300,80.1152,300,74.87446,300,61.08711,300,53.17659,300,50.2511
295,89.27803,295,81.59613,295,81.2463,295,75.60756,295,61.76067,295,53.62187,295,50.90562
290,91.55195,290,83.22723,290,82.34336,290,76.26977,290,62.36588,290,54.12379,290,51.07951
285,93.84302,285,85.08311,285,83.55882,285,77.33495,285,62.77925,285,54.69986,285,51.6168
280,96.87146,280,87.2874,280,84.75486,280,78.23834,280,63.36774,280,55.36783,280,52.11378
275,99.25729,275,88.60016,275,85.08378,275,78.28968,275,63.76926,275,55.57353,275,52.42679
270,101.355,270,89.23338,270,84.94224,270,78.30774,270,63.56794,270,55.42158,270,52.4017
265,102.2817,265,89.57905,265,83.86475,265,77.00676,265,62.84224,265,54.92822,265,51.9257
260,102.593,260,88.78523,260,82.71035,260,75.75636,260,61.93156,260,54.297,260,51.36095
255,102.56,255,87.6715,255,81.10926,255,74.44791,255,60.9368,255,53.58917,255,50.75528
250,102.401,250,85.76899,250,79.08246,250,72.62605,250,59.89353,250,52.67671,250,49.91084