File: example/MoS2 Ext - Nat Comm.csv
Fraction 1,,Fraction 2,,Fraction 3,,Fraction 4,,Fraction 5,,Fraction 6,,Fraction 7,,Fraction 8,,Fraction 9,
Wavelength (nm),Ext,Wavelength (nm),Ext,Wavelength (nm),Ext,Wavelength (nm),Ext,Wavelength (nm),Ext,Wavelength (nm),Ext,Wavelength (nm),Ext,Wavelength (nm),Ext,Wavelength (nm),Ext
1000,-0.02823,1000,-0.04191,1000,-0.06922,1000,-0.09472,1000,-0.12666,1000,-0.25143,1000,-0.47176,1000,-0.5639,1000,0.27981
991,-0.03082,991,-0.04557,991,-0.07586,991,-0.10378,991,-0.13887,991,-0.27784,991,-0.52542,991,-0.6279,991,0.28842
982,-0.03181,982,-0.0474,982,-0.07929,982,-0.10847,982,-0.14543,982,-0.29309,982,-0.55898,982,-0.66842,982,0.2987
973,-0.0303,973,-0.04592,973,-0.07766,973,-0.10649,973,-0.14272,973,-0.29146,973,-0.56185,973,-0.67317,973,0.31187
964,-0.02641,964,-0.04088,964,-0.07056,964,-0.09721,964,-0.13032,964,-0.27042,964,-0.53164,964,-0.63903,964,0.32756
955,-0.01902,955,-0.03038,955,-0.05332,955,-0.07375,955,-0.09792,955,-0.20732,955,-0.41833,955,-0.50603,955,0.34717
946,-0.01151,946,-0.01944,946,-0.03267,946,-0.04501,946,-0.05747,946,-0.11597,946,-0.22549,946,-0.27487,946,0.36747
937,-0.00453,937,-0.00982,937,-0.01659,937,-0.0232,937,-0.02727,937,-0.05544,937,-0.11077,937,-0.13964,937,0.38783
928,5.86E-04,928,-0.00256,928,-0.00491,928,-0.00729,928,-0.00545,928,-0.01226,928,-0.03273,928,-0.04913,928,0.40683
919,0.00376,919,0.00153,919,0.00196,919,0.0021,919,0.00767,919,0.01358,919,0.0156,919,0.00829,919,0.42445
910,0.00537,910,0.00372,910,0.00549,910,0.00696,910,0.01465,910,0.0273,910,0.04094,910,0.03852,910,0.44174
901,0.00641,901,0.00512,901,0.00798,901,0.01045,901,0.01966,901,0.03682,901,0.0576,901,0.05784,901,0.45918
892,0.00766,892,0.00657,892,0.01047,892,0.01384,892,0.02462,892,0.04646,892,0.07328,892,0.07514,892,0.47723
883,0.0082,883,0.00732,883,0.01224,883,0.0165,883,0.02863,883,0.05469,883,0.08822,883,0.09283,883,0.49568
874,0.0091,874,0.00849,874,0.0142,874,0.01929,874,0.03299,874,0.06377,874,0.10503,874,0.11226,874,0.51493
865,0.01013,865,0.00921,865,0.01585,865,0.02181,865,0.03667,865,0.07174,865,0.11983,865,0.1294,865,0.53493
856,0.0103,856,0.01008,856,0.01755,856,0.0244,856,0.04073,856,0.07976,856,0.1344,856,0.14543,856,0.55565
847,0.01129,847,0.0109,847,0.01933,847,0.02702,847,0.04482,847,0.0884,847,0.1498,847,0.16332,847,0.57734
838,0.0105,838,0.01083,838,0.02009,838,0.02845,838,0.04752,838,0.09521,838,0.16501,838,0.18097,838,0.59906
829,0.01214,829,0.01258,829,0.02333,829,0.03307,829,0.05461,829,0.10894,829,0.18858,829,0.2085,829,0.62279
820,0.01317,820,0.01478,820,0.02698,820,0.03851,820,0.06246,820,0.12425,820,0.21477,820,0.23794,820,0.64794
811,0.01396,811,0.01541,811,0.02911,811,0.04159,811,0.06766,811,0.13465,811,0.23279,811,0.25809,811,0.67329
802,0.01482,802,0.01657,802,0.03138,802,0.04506,802,0.07321,802,0.14575,802,0.25159,802,0.27896,802,0.69995
793,-0.003,793,0.00945,793,0.02807,793,0.03945,793,0.06889,793,0.15544,793,0.26669,793,0.29432,793,0.71747
784,-0.00308,784,0.01018,784,0.02983,784,0.04305,784,0.07455,784,0.16687,784,0.28518,784,0.31478,784,0.74628
775,-0.00221,775,0.01099,775,0.03207,775,0.04689,775,0.08107,775,0.17976,775,0.30556,775,0.33804,775,0.77618
766,-0.00214,766,0.01202,766,0.03499,766,0.05083,766,0.0889,766,0.19498,766,0.33291,766,0.36781,766,0.8077
757,-0.00182,757,0.01394,757,0.03843,757,0.05677,757,0.09779,757,0.21419,757,0.36355,757,0.40234,757,0.84177
748,-7.36E-04,748,0.0151,748,0.04238,748,0.06302,748,0.10842,748,0.23549,748,0.40013,748,0.44276,748,0.87689
739,8.14E-04,739,0.01761,739,0.04774,739,0.0711,739,0.12134,739,0.26139,739,0.44338,739,0.49059,739,0.91472
730,0.00279,730,0.02072,730,0.05482,730,0.08188,730,0.13883,730,0.29586,730,0.50169,730,0.55664,730,0.95513
721,0.00518,721,0.02469,721,0.06384,721,0.09488,721,0.15952,721,0.33732,721,0.57143,721,0.63363,721,0.99873
712,0.00919,712,0.03033,712,0.07518,712,0.11177,712,0.18593,712,0.38918,712,0.65263,712,0.7234,712,1.04662
703,0.01582,703,0.03978,703,0.09209,703,0.13656,703,0.22362,703,0.45836,703,0.75662,703,0.83805,703,1.09878
694,0.02758,694,0.05613,694,0.12075,694,0.17681,694,0.28274,694,0.56236,694,0.89371,694,0.98775,694,1.15301
685,0.05085,685,0.0899,685,0.1768,685,0.25315,685,0.38794,685,0.72704,685,1.06283,685,1.15763,685,1.1975
676,0.09471,676,0.15389,676,0.27528,676,0.37978,676,0.5398,676,0.89965,676,1.14132,676,1.21034,676,1.18896
667,0.14783,667,0.21565,667,0.34002,667,0.4434,667,0.58422,667,0.87603,667,1.04909,667,1.09963,667,1.11698
658,0.16706,658,0.22025,658,0.3253,658,0.4128,658,0.53546,658,0.79583,658,0.9703,658,1.02148,658,1.0703
649,0.15902,649,0.20465,649,0.30467,649,0.38867,649,0.51092,649,0.77808,649,0.9684,649,1.02376,649,1.07571
640,0.1598,640,0.2068,640,0.31169,640,0.40091,640,0.53225,640,0.82066,640,1.02057,640,1.07804,640,1.10663
631,0.17656,631,0.22762,631,0.3432,631,0.44258,631,0.58677,631,0.89593,631,1.08594,631,1.14114,631,1.13573
622,0.20649,622,0.26389,622,0.39346,622,0.50453,622,0.65936,622,0.97371,622,1.13246,622,1.1779,622,1.14968
613,0.24498,613,0.30779,613,0.44716,613,0.56473,613,0.71766,613,1.00958,613,1.13181,613,1.16893,613,1.13861
604,0.26309,604,0.32602,604,0.46129,604,0.57362,604,0.71292,604,0.9739,604,1.08271,604,1.11619,604,1.10152
595,0.25128,595,0.30938,595,0.43616,595,0.54091,595,0.6731,595,0.92592,595,1.04458,595,1.08129,595,1.07682
586,0.23518,586,0.29198,586,0.41821,586,0.52387,586,0.6607,586,0.92826,586,1.05575,586,1.09462,586,1.08689
577,0.22829,577,0.28682,577,0.42052,577,0.53314,577,0.68076,577,0.96687,577,1.0949,577,1.13344,577,1.10902
568,0.22742,568,0.29033,568,0.43511,568,0.55764,568,0.71602,568,1.01733,568,1.13518,568,1.17084,568,1.1306
559,0.23259,559,0.30002,559,0.45867,559,0.59235,559,0.76231,559,1.07616,559,1.17663,559,1.20854,559,1.15175
550,0.2412,550,0.31575,550,0.48932,550,0.63593,550,0.81709,550,1.1376,550,1.21838,550,1.24262,550,1.17291
541,0.25415,541,0.33668,541,0.52851,541,0.68961,541,0.88157,541,1.20376,541,1.25488,541,1.27398,541,1.19487
532,0.27214,532,0.36423,532,0.57743,532,0.75501,532,0.95645,532,1.27051,532,1.28956,532,1.30123,532,1.21699
523,0.29515,523,0.40056,523,0.63869,523,0.83444,523,1.04229,523,1.33301,523,1.31745,523,1.32382,523,1.24017
514,0.32713,514,0.44952,514,0.71616,514,0.93157,514,1.13717,514,1.38697,514,1.34168,514,1.34198,514,1.26348
505,0.37299,505,0.51709,505,0.81316,505,1.04498,505,1.23504,505,1.42546,505,1.36141,505,1.35961,505,1.28704
496,0.43575,496,0.60957,496,0.92626,496,1.16498,496,1.32327,496,1.44487,496,1.37608,496,1.3746,496,1.30751
487,0.52056,487,0.72275,487,1.04414,487,1.27162,487,1.38752,487,1.44826,487,1.38574,487,1.38615,487,1.31988
478,0.62663,478,0.84663,478,1.14886,478,1.34923,478,1.42535,478,1.44311,478,1.39136,478,1.39332,478,1.32396
469,0.74935,469,0.97479,469,1.23965,469,1.40421,469,1.44781,469,1.43813,469,1.39379,469,1.39548,469,1.32274
460,0.88435,460,1.09972,460,1.31148,460,1.43437,460,1.45284,460,1.42403,460,1.38706,460,1.39017,460,1.31259
451,1.01769,451,1.19894,451,1.34877,451,1.43179,451,1.43338,451,1.39612,451,1.3655,451,1.36775,451,1.29013
442,1.12039,442,1.25136,442,1.34786,442,1.40137,442,1.39518,442,1.35856,442,1.33415,442,1.33754,442,1.26094
433,1.18269,433,1.26837,433,1.33259,433,1.36921,433,1.36036,433,1.32559,433,1.30603,433,1.30759,433,1.23671
424,1.22475,424,1.28352,424,1.32761,424,1.35268,424,1.34041,424,1.30693,424,1.2886,424,1.29055,424,1.22272
415,1.2673,415,1.30808,415,1.33354,415,1.34697,415,1.33022,415,1.29354,415,1.27681,415,1.27891,415,1.21248
406,1.31283,406,1.3363,406,1.33821,406,1.33697,406,1.31559,406,1.2762,406,1.26177,406,1.26318,406,1.19907
397,1.34973,397,1.3495,397,1.32664,397,1.31234,397,1.28637,397,1.2474,397,1.23452,397,1.23905,397,1.17741
388,1.34846,388,1.32415,388,1.2848,388,1.26205,388,1.23736,388,1.20235,388,1.19547,388,1.19749,388,1.14442
379,1.29129,379,1.25491,379,1.21179,379,1.18963,379,1.16938,379,1.14349,379,1.14154,379,1.1438,379,1.10131
370,1.19637,370,1.16313,370,1.12887,370,1.11237,370,1.09812,370,1.08272,370,1.08375,370,1.08938,370,1.05794
361,1.09685,361,1.07405,361,1.05199,361,1.04397,361,1.03565,361,1.02954,361,1.03313,361,1.036,361,1.02039
352,1.02303,352,1.00977,352,1.00299,352,1.00372,352,0.99908,352,1.00066,352,1.00739,352,1.01391,352,0.99972
343,1.00164,343,1.0047,343,1.00454,343,1.00508,343,1.00482,343,1.00122,343,1.00078,343,1.00009,343,1.00415
334,1.04562,334,1.04305,334,1.03514,334,1.03051,334,1.0244,334,1.01668,334,1.01128,334,1.01153,334,1.01591
325,1.10225,325,1.0818,325,1.06082,325,1.0499,325,1.03917,325,1.02688,325,1.02334,325,1.02175,325,1.02405
316,1.17606,316,1.12473,316,1.08521,316,1.06442,316,1.04891,316,1.03189,316,1.02587,316,1.02426,316,1.02871
307,1.26642,307,1.17361,307,1.11411,307,1.08133,307,1.06231,307,1.03895,307,1.03127,307,1.02962,307,1.03679
298,1.35744,298,1.2262,298,1.14553,298,1.10458,298,1.0793,298,1.05162,298,1.041,298,1.04053,298,1.05038
289,1.44099,289,1.27871,289,1.17764,289,1.1254,289,1.09625,289,1.06216,289,1.05015,289,1.04697,289,1.06503
280,1.53212,280,1.33572,280,1.21099,280,1.14543,280,1.11296,280,1.07268,280,1.05672,280,1.05177,280,1.07823
271,1.60675,271,1.36735,271,1.2193,271,1.14305,271,1.10632,271,1.06004,271,1.03474,271,1.02375,271,1.07409
262,1.65316,262,1.36376,262,1.19683,262,1.11339,262,1.07621,262,1.02856,262,0.9975,262,0.98478,262,1.05664
253,1.68417,253,1.3355,253,1.15644,253,1.07031,253,1.03523,253,0.99648,253,0.97362,253,0.96225,253,1.0337
250,1.69285,250,1.32189,250,1.1391,250,1.05302,250,1.02046,250,0.98709,250,0.97087,250,0.96207,250,1.02461